charge=0
crossvalidation_batch_index=3
db_authors=Stravs M, Schymanski E, Singer H, Department of Environmental Chemistry, Eawag and Thomaidis N, University of Athens
db_copyright=Copyright (C) 2015 Eawag, Duebendorf, Switzerland
db_entry_id=EQ370701, EQ370702, EQ370703, EQ370704, EQ370705, EQ370706, EQ370707, EQ370708, EQ370709
db_license=CC BY
db_molecule_name=Fenthion-sulfoxide Mesulfenos O,O-Dimethyl O-[3-methyl-4-(methylsulfinyl)phenyl] phosphorothioate
db_source=MassBank
exactmass=294.01493759
formula=C10H15O4PS2
fpt_0=AAAAAAAAAAAAAAAAAAAAAAAAAAAAAAAAAAAAAAAAAAAAAAAAAAAAAAAAAAAAAAAAAAAAAAAAAAAAAAAAAAAAAAAAAAAAAAAAAAAAAAAAAAAAAAAIAAAAAAAAAAAAAAAAAAAAAAAAAAAAAAAAAAAAAAAAAAAAAAAAAAAAAAAAAAAAAAAAAAAAAAAAAAAAAAAAAAAAAAAAAAAAAAAAAAAAAAAAAAAAAAAAAAAAAAAAAAAAAAAAAAAAAAAAAAAAAAAAAAAAAAAAAAAAAAAAAAgQAAAAAAAAAAAAAAAAAAAAAAAAAAAAAAAAAAAAAAAAAAAAAAAAAAAAAAAAAAAAAAAAAAAAAAAAAAAAAAAAAAAAAAAAAAAAAAAAAAAAAAAAAAAAAAAAAAAAAAAAAAAAAAAAAAAAAAAAAAAAAAAAAAAAIAAAAAAAAAAAAAAAAAAAIAAAAAAAAAAAAAAAAAAAAAAAAAAAAAACAAAQAAAAAAAAAAAAAAACAAAAAAAAAAAAAAAAAAAAAAAAAAAAAAAAAAAAAAAAAAAAAAAAAAAAAAAAAAAAAAAAAAAAAAAAAAAAAAAAAAAAAAAAAAAAAAAAAAAAAAIAAAAAAAAAAAAAAAAAAAAAAAAAAAAAAAAAAAAAAAAAAAAAAAAAAAAAAAAAAAAQAAAAAAAAACAwAAAAAAAAAAAAAAAAAAAAAAAAAAAAAAAAAAAAAAAAAAAAAAAAACAAAAAAAAAAAAAAAAAAAAAAAAAAAAAAAAAAAAAAAAAAAAAAAAAAAAAAAAAAAAAAAAAAAAAAAAAAAAAAAAAAAAAgCAAAEECAABIDkggIEIBEGAFkAbXQt4CEIAAMASQAAAAgAAGCk4DgCAEkBAAN4AAQAAEEAa2UgCFJgBoxYMITAiAiA0EmyAFAgIAAEgQIAAAIBAAABIAgAAAgCAIigEgQAAAAKQJjDChKAAMAYKoAAIgAgAAABAAAIECAkGYPAAAAAgAAIwABASAoBEAhIEADAAAECAUgAQCEgCIICACgAgA4HAEwAAAAAAAAAAAAAAAAAAAAAAAYAAAAAAAAAAAAgAAADQIAABAABgJAbAFZA8AAAI1AARAhACAhAAAQFAgERAwDBEQEExFQCIlAGAASYAiERAPAYAgHAEAAgAACAAAAgAEAAAQAAAAAAAAAIAAAAAAAAAAAAAAAAAAAAAAAAAAAAAAAACAAAAAAAQAAABAAgIcIAAAAAAAQAAAEAIAAAAQAAAAAAAAAAAAAAAAAAACAABAAABAAAABYAAAAAAAAAAAAAAAAAAAAAAAAAAAAAAAAAAAAgAAAgAAAAAABAAAAAAAAAAAAAAACIAAAAAAAAAAAACABECAIAAAIAAAAAAAACAAAAAAAAAAAAAAAAAIAAAAAAAAAAAAAAAAAAAAAAAAAAAAAAAAAAAAAAAAAAAAAAAAAAAAgAAAAAAAIEAAAAAigAAAAAAgAAAAAAAABgAAAAAAAAAAAAAQAAAAAAAAIAAAAAAAAAAIAAAAAAAAAACAAAQAAAAECAAABAAAAAAAAAAAAgAAgAAAABAAAAAIgAQABgAAAAAAAQAAABAAAAAEAQABABBACAAlAAAAAAYAIAAEgICAAAMQAwQAAIBAABAAAAgAAAAAJAAAEAAAAAAgAAAAAAgACAAAAgWQAAAAAEIAAEAAAAgAKAAAENAAAAAAQQAAIQAAAEAGICAAAoikAAAAIAAAAAJAAAAAAAEAAAAAAAAAABAAgIAAIACAAAAAAABhAAAIAgAQgAAEAACAACAACAAUIAAAAAAgAICAgCAAAAAAAAAAAQAAAAAQAAAAIAAAAAAAUAABAACAAACAAACAAAAAAAAgAAAA2AAAAAAAAAAAAAACAAAAAAAAAAAAAAAIAABAAAAAAAAAAAAA=
fptcount=1
global_index=310
inchi=C10H15O4PS2/c1-8-7-9(5-6-10(8)17(4)11)14-15(16,12-2)13-3/h5-7H,1-4H3
level=1
mode=1
peaks
	1,295.022214057,100.0
		ion_type=[M+H]+
		spectrum
			charge=0
			collision_energy=-1.0
			collision_record=180 (nominal)
			dbsource=MassBank
			exactmass=294.01493759
			formula=C10H15O4PS2
			inchi=C10H15O4PS2/c1-8-7-9(5-6-10(8)17(4)11)14-15(16,12-2)13-3/h5-7H,1-4H3
			level=2
			mode=1
			precursor_ion=[M+H]+
			precursor_mz=295.0222
			peaks
				1,50.0152,487069.5
				2,51.023,948766.4
				3,52.0308,132709.4
				4,53.0023,74207.1
				5,53.0386,342723.6
				6,53.9975,10430.6
				7,55.0179,26859.4
				8,57.9872,141172.0
				9,58.995,47159.7
				10,59.9665,198707.2
				11,61.0073,31769.6
				12,62.0151,115645.2
				13,62.0185,36292.1
				14,62.9453,328414.7
				15,62.9631,35614.8
				16,62.9995,209251.0
				17,63.023,544750.6
				18,63.9436,37322.2
				19,64.0307,25858.8
				20,65.0386,1584147.6
				21,66.0465,732192.3
				22,67.0544,9628.9
				23,68.9794,1084392.8
				24,69.9872,60634.4
				25,70.9951,153616.5
				26,75.0229,36717.4
				27,76.0307,49179.2
				28,77.0386,373024.5
				29,78.0464,620680.9
				30,78.9944,497118.4
				31,79.0542,89861.5
				32,79.9481,9854.0
				33,81.0101,24104.0
				34,81.0336,39364.7
				35,81.9872,176629.8
				36,82.9951,26136.3
				37,84.0029,102238.3
				38,89.0387,310497.5
				39,90.0465,31109.8
				40,91.0543,460449.3
				41,92.9795,55237.9
				42,93.0102,39420.2
				43,94.0414,68410.0
				44,94.9951,112338.4
				45,95.0492,768628.5
				46,96.0029,26809.0
				47,97.0108,440991.7
				48,98.9843,76029.5
				49,100.9515,14556.3
				50,102.0466,7648.4
				51,103.0544,40838.2
				52,105.0448,487015.9
				53,107.0047,26226.3
				54,107.0493,29386.0
				55,108.0029,226645.2
				56,109.0108,383576.4
				57,110.0186,97310.8
				58,115.0547,7364.8
				59,120.003,12945.2
				60,121.0108,824049.2
				61,122.0187,27553.3
				62,123.0266,7887.6
				63,127.0155,8908.4
				64,134.0185,47236.4
				65,135.0264,23680.7
				66,137.0059,38707.8
				67,138.9764,6603.0
				68,152.9829,149205.0
			end
		end
		spectrum
			charge=0
			collision_energy=-1.0
			collision_record=15 (nominal)
			dbsource=MassBank
			exactmass=294.01493759
			formula=C10H15O4PS2
			inchi=C10H15O4PS2/c1-8-7-9(5-6-10(8)17(4)11)14-15(16,12-2)13-3/h5-7H,1-4H3
			level=2
			mode=1
			precursor_ion=[M+H]+
			precursor_mz=295.0222
			peaks
				1,105.0699,80374.5
				2,109.005,118675.0
				3,124.9821,238255.7
				4,153.0363,84295.7
				5,201.0403,890125.5
				6,217.0628,121248.4
				7,232.0317,397349.5
				8,233.0394,155288.7
				9,262.9957,295523.2
				10,264.0039,1933924.5
				11,278.0195,563232.0
				12,279.9989,3032946.0
				13,295.0222,75523888.0
			end
		end
		spectrum
			charge=0
			collision_energy=-1.0
			collision_record=30 (nominal)
			dbsource=MassBank
			exactmass=294.01493759
			formula=C10H15O4PS2
			inchi=C10H15O4PS2/c1-8-7-9(5-6-10(8)17(4)11)14-15(16,12-2)13-3/h5-7H,1-4H3
			level=2
			mode=1
			precursor_ion=[M+H]+
			precursor_mz=295.0222
			peaks
				1,79.0542,48040.9
				2,91.0542,67838.5
				3,93.0099,118666.4
				4,104.062,665821.0
				5,105.0699,1381283.5
				6,107.0492,76124.2
				7,109.0051,223911.8
				8,111.0262,68781.2
				9,121.0648,134034.1
				10,122.0726,59828.1
				11,123.0263,98030.4
				12,124.9818,302222.9
				13,125.0421,34986.4
				14,127.0155,1404259.6
				15,134.0185,60840.5
				16,135.0264,102490.5
				17,136.0342,241563.4
				18,136.052,49634.3
				19,137.042,233578.3
				20,138.0135,230095.5
				21,138.0499,99111.4
				22,139.0213,384223.7
				23,141.9851,35320.0
				24,142.9928,371334.1
				25,152.9826,204581.6
				26,153.0369,234792.0
				27,153.9906,709956.4
				28,154.0447,654008.2
				29,165.9906,42357.7
				30,166.9985,184047.7
				31,168.0605,85517.7
				32,169.0139,233125.0
				33,169.9855,142069.2
				34,170.0219,1268325.1
				35,170.9933,45387.6
				36,185.009,100436.7
				37,186.0165,131314.5
				38,199.0519,243798.7
				39,200.0058,266553.0
				40,201.0404,2500743.2
				41,216.0548,55146.9
				42,217.0088,89085.3
				43,217.0627,379319.4
				44,219.0244,90326.9
				45,229.0086,66343.4
				46,231.0241,81498.8
				47,231.9779,205303.3
				48,232.0319,3911060.0
				49,233.0397,771229.6
				50,245.0395,124225.3
				51,245.9933,37226.7
				52,246.9647,186246.6
				53,247.0193,146860.3
				54,247.973,158329.5
				55,249.9876,106441.4
				56,261.9883,1648711.1
				57,262.9961,1283155.6
				58,264.004,7432437.5
				59,264.975,118169.7
				60,265.9824,64841.2
				61,277.0114,96867.3
				62,278.0197,6794062.0
				63,279.9988,33215788.0
				64,281.0066,294829.4
				65,295.0223,24493932.0
			end
		end
		spectrum
			charge=0
			collision_energy=-1.0
			collision_record=45 (nominal)
			dbsource=MassBank
			exactmass=294.01493759
			formula=C10H15O4PS2
			inchi=C10H15O4PS2/c1-8-7-9(5-6-10(8)17(4)11)14-15(16,12-2)13-3/h5-7H,1-4H3
			level=2
			mode=1
			precursor_ion=[M+H]+
			precursor_mz=295.0222
			peaks
				1,53.0385,13837.6
				2,64.9786,16322.2
				3,77.0385,54225.5
				4,78.0464,256967.1
				5,78.9943,354897.5
				6,79.0542,100227.0
				7,80.0621,20351.8
				8,90.0464,61310.1
				9,91.0542,271066.7
				10,92.0621,82484.4
				11,93.0101,1403670.0
				12,95.0491,51206.3
				13,103.0542,30266.3
				14,104.0621,1492935.2
				15,105.0699,2771017.2
				16,107.0492,107467.0
				17,108.0568,20616.2
				18,109.0045,233665.5
				19,109.0106,222742.0
				20,110.0128,71758.4
				21,110.0184,213348.8
				22,111.0263,1365998.4
				23,112.9997,83192.5
				24,117.0697,13954.9
				25,119.0859,29421.7
				26,121.0105,190565.1
				27,121.0649,273934.8
				28,122.0185,290293.8
				29,122.0727,151579.8
				30,123.0263,372749.3
				31,124.0342,151970.2
				32,124.9822,1357521.8
				33,127.0155,12471902.0
				34,127.9749,38517.0
				35,134.0186,304602.4
				36,135.0263,660649.6
				37,136.0342,607277.4
				38,136.052,99557.0
				39,137.0056,277497.6
				40,137.042,954625.1
				41,138.0135,719744.1
				42,138.0498,310156.4
				43,139.0213,1862502.2
				44,140.0291,16441.0
				45,140.9827,21164.4
				46,141.0312,43139.8
				47,141.9848,166454.5
				48,141.9907,126536.5
				49,142.9928,2323005.2
				50,149.042,47474.2
				51,150.0498,37488.3
				52,151.0577,504770.8
				53,151.975,97755.0
				54,152.0291,34034.0
				55,152.9828,1579060.4
				56,153.0369,189727.0
				57,153.9906,3049241.2
				58,154.0447,947755.4
				59,154.9983,66275.0
				60,155.0161,119859.0
				61,156.0062,45840.5
				62,157.0082,40221.0
				63,165.9907,287632.4
				64,166.9985,520174.0
				65,168.0062,329776.2
				66,168.0604,94070.7
				67,168.9778,232202.9
				68,168.9866,99449.7
				69,169.0141,990421.8
				70,169.9855,1931215.9
				71,170.0219,1904984.1
				72,170.9933,621396.9
				73,184.001,50892.0
				74,184.0375,265166.4
				75,185.0091,131579.0
				76,185.0361,35549.1
				77,186.0169,520682.4
				78,186.9978,15223.2
				79,199.052,661054.1
				80,200.0056,1591244.6
				81,201.0135,94552.9
				82,201.0403,224542.7
				83,202.9925,14073.3
				84,204.9542,16212.4
				85,213.0135,16039.9
				86,214.9932,75046.4
				87,215.9467,74466.3
				88,216.0009,62075.0
				89,217.0085,212857.8
				90,217.0627,99680.7
				91,217.9619,20016.9
				92,218.0166,53052.1
				93,219.024,84620.4
				94,229.0085,295039.0
				95,229.9622,201494.7
				96,230.0164,17188.4
				97,230.9702,78834.1
				98,231.024,298196.9
				99,231.9779,484203.0
				100,232.0319,4369357.5
				101,232.9495,32918.8
				102,232.9856,44036.6
				103,233.0397,114007.3
				104,245.0398,649382.3
				105,245.9933,347015.6
				106,246.9648,887826.9
				107,247.019,189961.1
				108,247.9727,725317.4
				109,248.9805,149126.9
				110,249.9885,266025.6
				111,261.9883,2947693.8
				112,262.9961,1978869.2
				113,264.004,1030940.5
				114,264.0208,75738.9
				115,264.9753,462434.4
				116,265.9829,117871.1
				117,278.0197,5598859.0
				118,279.9989,13562970.0
				119,281.0067,91590.2
				120,295.0224,624486.1
			end
		end
		spectrum
			charge=0
			collision_energy=-1.0
			collision_record=60 (nominal)
			dbsource=MassBank
			exactmass=294.01493759
			formula=C10H15O4PS2
			inchi=C10H15O4PS2/c1-8-7-9(5-6-10(8)17(4)11)14-15(16,12-2)13-3/h5-7H,1-4H3
			level=2
			mode=1
			precursor_ion=[M+H]+
			precursor_mz=295.0222
			peaks
				1,53.0386,93293.6
				2,62.0185,111215.6
				3,62.9995,118390.8
				4,63.9436,73359.8
				5,64.9787,78585.2
				6,65.0386,35901.7
				7,66.0464,51481.7
				8,77.0385,138296.9
				9,78.0464,1463791.4
				10,78.9943,2556845.5
				11,79.0542,137881.2
				12,80.0023,51947.9
				13,89.0386,96973.5
				14,90.0465,139277.4
				15,91.0543,700715.7
				16,92.0621,238677.7
				17,93.0101,1665826.8
				18,94.0413,70851.8
				19,94.9893,53175.2
				20,95.0492,400648.7
				21,96.0028,49721.4
				22,97.005,86817.7
				23,97.0108,50834.8
				24,98.0185,57059.9
				25,103.0543,200927.0
				26,104.0621,1258397.2
				27,105.0449,222053.5
				28,105.07,2852260.2
				29,107.0492,164391.4
				30,108.0028,55464.6
				31,108.0569,56194.4
				32,109.0051,172965.9
				33,109.0107,1029317.7
				34,110.013,103771.6
				35,110.0185,893556.1
				36,111.0264,2024686.4
				37,112.9998,185438.6
				38,119.0493,41048.3
				39,121.0107,492794.9
				40,121.0649,292244.7
				41,122.0186,615011.6
				42,122.0726,179740.4
				43,123.0264,612636.6
				44,124.0343,308679.5
				45,124.9822,2638944.8
				46,126.0136,111644.3
				47,127.0155,23632536.0
				48,134.0186,247194.8
				49,135.0263,687302.6
				50,135.9979,94719.5
				51,136.0343,568399.5
				52,136.052,62531.7
				53,137.0057,704221.9
				54,137.0421,824204.6
				55,138.0135,547635.0
				56,138.0498,344097.2
				57,139.0213,1031124.5
				58,140.9829,168586.5
				59,141.0314,94120.3
				60,141.985,79440.4
				61,141.9905,481335.1
				62,142.9928,5137879.0
				63,142.9981,279418.625
				64,149.0421,50578.3
				65,151.0577,563367.9
				66,151.9751,101172.5
				67,152.0291,33565.4
				68,152.9828,2923241.8
				69,153.0369,256448.2
				70,153.9906,1792106.9
				71,154.0447,426355.7
				72,154.9716,46180.8
				73,154.9985,231623.1
				74,155.0162,150957.9
				75,156.0062,35813.4
				76,157.0086,100701.5
				77,165.9908,164161.2
				78,166.9985,277556.0
				79,167.9794,37162.5
				80,168.0063,226038.7
				81,168.0603,86664.1
				82,168.9778,464963.9
				83,168.9873,642287.8
				84,169.0141,1932967.8
				85,169.9856,1828204.9
				86,169.9948,238346.5
				87,170.022,919765.6
				88,170.9934,584380.2
				89,184.0373,185953.2
				90,184.9821,54480.0
				91,185.009,76610.3
				92,185.0365,36364.7
				93,186.0169,123897.0
				94,186.9439,64549.0
				95,186.9975,31374.3
				96,198.9979,36810.7
				97,199.052,444138.1
				98,200.0057,2035686.2
				99,200.9593,77859.5
				100,202.9928,100037.1
				101,213.0135,79936.2
				102,214.9928,81167.0
				103,215.9464,137938.0
				104,217.0085,175163.3
				105,218.0165,69394.8
				106,229.0086,143986.7
				107,229.9622,128048.8
				108,230.9701,271223.9
				109,231.024,216295.2
				110,231.9778,137987.1
				111,232.032,1005753.7
				112,232.9856,103365.0
				113,245.0398,236759.0
				114,245.9935,269176.3
				115,246.9649,327767.2
				116,247.0189,63063.2
				117,247.9728,256002.2
				118,248.9805,123815.3
				119,261.9883,390561.2
				120,262.9962,1079902.6
				121,264.0213,39303.1
				122,264.9756,113193.1
				123,278.0196,663736.0
				124,279.9989,761548.8
			end
		end
		spectrum
			charge=0
			collision_energy=-1.0
			collision_record=75 (nominal)
			dbsource=MassBank
			exactmass=294.01493759
			formula=C10H15O4PS2
			inchi=C10H15O4PS2/c1-8-7-9(5-6-10(8)17(4)11)14-15(16,12-2)13-3/h5-7H,1-4H3
			level=2
			mode=1
			precursor_ion=[M+H]+
			precursor_mz=295.0222
			peaks
				1,53.0386,174752.1
				2,58.995,41783.7
				3,59.9665,37867.8
				4,62.0185,244050.0
				5,62.9453,47876.2
				6,62.9995,205050.4
				7,63.9436,93274.1
				8,64.9787,157926.3
				9,65.0386,95355.2
				10,66.0464,207408.8
				11,67.0543,49257.8
				12,68.9793,34217.7
				13,69.9871,48561.5
				14,77.0385,237997.5
				15,78.0464,2333256.5
				16,78.9943,6349400.0
				17,80.0021,89139.7
				18,81.01,57854.9
				19,84.0029,73864.3
				20,89.0387,168484.1
				21,90.0465,202603.4
				22,91.0543,1065270.5
				23,92.0621,257791.6
				24,93.0101,1099792.2
				25,93.0336,88069.8
				26,93.0699,93780.4
				27,94.0414,208167.6
				28,94.9892,55920.2
				29,95.0492,790569.3
				30,96.0029,68570.9
				31,97.005,267746.0
				32,97.0107,263459.9
				33,98.0186,184412.3
				34,98.9842,73307.8
				35,103.0543,278519.2
				36,104.0257,37168.2
				37,104.0621,577229.4
				38,105.0335,95707.0
				39,105.0448,431467.1
				40,105.07,1792621.5
				41,107.0492,151629.6
				42,108.0028,181012.8
				43,108.0569,71679.2
				44,109.0053,120772.1
				45,109.0107,1624425.0
				46,110.0185,1495952.8
				47,111.0204,52888.7
				48,111.0264,974876.9
				49,111.0441,49197.3
				50,112.9999,271162.5
				51,121.0107,879426.8
				52,121.0649,229047.6
				53,122.0186,689815.2
				54,122.0726,98024.5
				55,123.0263,619651.0
				56,124.0343,320653.2
				57,124.9822,2161915.2
				58,125.0421,179287.7
				59,126.0135,161034.6
				60,127.0155,19308090.0
				61,128.9769,41058.6
				62,134.0186,159888.4
				63,135.0263,605685.0
				64,135.9979,99625.1
				65,136.0343,311617.8
				66,137.0056,739449.7
				67,137.042,302163.5
				68,138.0135,263692.2
				69,138.0498,180280.4
				70,139.0213,433081.9
				71,139.9751,38342.3
				72,140.9828,337407.7
				73,141.0313,80967.1
				74,141.9852,20221.9
				75,141.9906,390788.1
				76,142.9928,4591694.0
				77,151.0577,220623.5
				78,151.975,67736.0
				79,151.9846,28906.5
				80,152.9828,3140166.5
				81,153.0369,202747.2
				82,153.9906,681274.8
				83,154.0446,128912.1
				84,154.9717,85327.6
				85,154.9984,262266.4
				86,155.0162,83235.4
				87,157.0085,71129.2
				88,165.9908,43096.8
				89,166.9984,157227.8
				90,167.9699,53043.7
				91,167.9795,101601.3
				92,168.0062,89302.2
				93,168.0603,47765.2
				94,168.9778,400560.1
				95,168.9872,1537875.1
				96,169.0141,1477399.5
				97,169.9856,447580.4
				98,169.995,261998.0
				99,170.0219,231024.2
				100,170.9934,155698.0
				101,184.0376,34159.5
				102,184.982,45190.1
				103,185.0362,31422.2
				104,186.9438,40980.0
				105,186.9981,29318.2
				106,198.9439,126919.3
				107,198.9979,33750.1
				108,199.0521,123518.8
				109,200.0057,713105.4
				110,200.9594,101256.9
				111,202.9928,142240.9
				112,213.0135,51192.7
				113,214.9391,19383.5
				114,214.9927,44811.8
				115,215.9465,82892.2
				116,216.9543,43103.4
				117,217.0085,89709.3
				118,218.016,30465.8
				119,230.9701,192067.1
				120,231.024,78042.8
				121,232.0318,61054.4
				122,245.9932,53689.3
				123,246.9646,34916.5
				124,248.9803,47980.4
				125,262.996,148680.8
			end
		end
		spectrum
			charge=0
			collision_energy=-1.0
			collision_record=90 (nominal)
			dbsource=MassBank
			exactmass=294.01493759
			formula=C10H15O4PS2
			inchi=C10H15O4PS2/c1-8-7-9(5-6-10(8)17(4)11)14-15(16,12-2)13-3/h5-7H,1-4H3
			level=2
			mode=1
			precursor_ion=[M+H]+
			precursor_mz=295.0222
			peaks
				1,50.0151,45003.9
				2,51.0229,45770.3
				3,53.0386,258537.9
				4,57.9872,14504.3
				5,58.995,38468.5
				6,59.9665,70798.2
				7,62.0185,315956.1
				8,62.9453,86014.6
				9,62.9995,283374.9
				10,63.023,58702.7
				11,63.9436,87830.0
				12,64.0308,36469.3
				13,64.9787,188336.9
				14,65.0386,356255.7
				15,66.0464,378062.9
				16,67.0542,51829.6
				17,68.9793,115955.3
				18,69.9872,30285.2
				19,70.995,15055.7
				20,76.0307,68210.2
				21,77.0386,361066.2
				22,78.0464,2476742.2
				23,78.9943,8186970.0
				24,80.0022,47805.4
				25,81.01,61333.1
				26,81.0335,34617.7
				27,81.9872,12796.9
				28,84.0028,83046.3
				29,85.0107,14065.9
				30,89.0386,384132.0
				31,90.0465,176368.5
				32,91.0543,1316608.1
				33,92.0621,238987.3
				34,93.0101,769487.9
				35,93.0336,82950.2
				36,93.0699,68209.0
				37,94.0414,345478.1
				38,95.0492,1034013.0
				39,96.0028,73500.6
				40,97.0051,319078.3
				41,97.0107,638209.8
				42,98.0185,207902.9
				43,98.9841,80910.9
				44,102.0464,16203.2
				45,103.0543,434447.1
				46,104.0258,51093.0
				47,104.0621,187431.5
				48,105.0336,115843.0
				49,105.0448,522372.8
				50,105.07,1026322.1
				51,107.0492,184360.3
				52,108.0029,398155.8
				53,108.0571,55757.1
				54,109.0107,2029759.2
				55,110.0185,1818521.6
				56,111.0205,50855.2
				57,111.0264,326825.9
				58,111.0441,58346.4
				59,112.9998,242660.7
				60,115.0543,14238.6
				61,119.0494,16507.4
				62,121.0107,1212434.5
				63,121.0649,165037.0
				64,122.0186,629683.8
				65,122.0727,59609.4
				66,123.0263,459950.5
				67,124.0343,180264.6
				68,124.9822,1114817.0
				69,125.0421,180387.4
				70,126.0136,139813.3
				71,127.0155,11142565.0
				72,128.9769,36101.1
				73,134.0186,106146.5
				74,135.0264,495063.7
				75,135.9978,69645.5
				76,136.0342,238220.9
				77,137.0057,562477.0
				78,137.042,121550.3
				79,138.0135,145418.6
				80,138.0498,59356.2
				81,139.0213,209000.5
				82,139.975,47334.3
				83,139.9845,29169.6
				84,140.9828,425520.9
				85,141.0313,43784.3
				86,141.9906,110501.8
				87,142.9928,2717365.8
				88,151.0212,12983.0
				89,151.0578,88121.5
				90,151.9751,46866.4
				91,151.9843,54692.1
				92,152.9828,2574626.0
				93,153.9906,513948.7
				94,154.9715,143552.2
				95,154.9984,132487.6
				96,155.0164,14449.5
				97,157.0083,41503.6
				98,166.9985,109944.9
				99,167.9699,33169.0
				100,167.9794,85048.8
				101,168.0058,14432.9
				102,168.9779,268255.5
				103,168.9872,1780053.0
				104,169.0141,590195.4
				105,169.9854,55448.9
				106,169.9951,92546.7
				107,170.0219,46825.6
				108,170.9488,14379.2
				109,170.9938,59416.7
				110,180.9876,12093.5
				111,184.9823,55848.4
				112,185.0366,27504.4
				113,186.9438,32521.1
				114,186.998,31817.1
				115,198.9437,129846.9
				116,198.9982,16057.1
				117,200.0057,98774.4
				118,200.959,35984.2
				119,202.9928,106057.4
				120,213.0133,11663.8
				121,214.9386,30813.6
				122,214.9926,18688.9
				123,215.9466,11938.8
				124,216.9543,12416.4
				125,217.0086,46027.1
				126,230.9703,33563.0
			end
		end
		spectrum
			charge=0
			collision_energy=-1.0
			collision_record=120 (nominal)
			dbsource=MassBank
			exactmass=294.01493759
			formula=C10H15O4PS2
			inchi=C10H15O4PS2/c1-8-7-9(5-6-10(8)17(4)11)14-15(16,12-2)13-3/h5-7H,1-4H3
			level=2
			mode=1
			precursor_ion=[M+H]+
			precursor_mz=295.0222
			peaks
				1,50.0152,152500.7
				2,50.9995,15169.0
				3,51.023,194349.0
				4,52.0308,16831.5
				5,53.0022,15401.7
				6,53.0386,300480.3
				7,55.0179,13134.1
				8,57.9873,48042.7
				9,58.9951,31115.7
				10,59.9665,109982.9
				11,61.0107,11453.9
				12,62.0151,14488.1
				13,62.0185,205570.6
				14,62.9453,255971.7
				15,62.9995,357126.1
				16,63.023,165463.8
				17,63.9436,69128.7
				18,64.0308,49872.5
				19,64.9788,118650.8
				20,65.0386,1129888.5
				21,66.0464,779059.8
				22,67.0542,39212.9
				23,68.9794,439727.6
				24,69.9872,33233.3
				25,70.995,118146.2
				26,75.0231,7332.8
				27,76.0307,100272.9
				28,77.0386,446802.6
				29,78.0464,1748255.1
				30,78.9944,4634489.0
				31,79.0542,458476.6
				32,79.9481,8321.2
				33,80.0022,10783.8
				34,81.01,68427.1
				35,81.0335,41842.2
				36,81.0699,12778.3
				37,81.9872,117816.2
				38,82.995,13317.8
				39,84.0029,167796.5
				40,85.0106,37853.0
				41,89.0386,572208.7
				42,90.0465,93245.5
				43,91.0543,1433775.6
				44,92.0621,67578.7
				45,93.0101,280355.3
				46,93.0336,23396.9
				47,94.0414,283383.0
				48,94.9951,77424.3
				49,95.0492,1095634.6
				50,96.0028,96293.8
				51,97.0053,238281.4
				52,97.0107,1103731.0
				53,98.0185,101939.7
				54,98.9843,108690.6
				55,100.9517,9169.7
				56,102.0467,10821.1
				57,103.0543,296610.0
				58,104.0621,15004.7
				59,105.0336,47878.6
				60,105.0448,590455.3
				61,105.07,196896.4
				62,106.0415,10997.3
				63,107.0493,125681.9
				64,108.0029,463108.2
				65,109.0108,1865612.0
				66,110.0186,1111873.1
				67,111.0206,45591.7
				68,111.0264,43491.3
				69,111.0441,9783.9
				70,112.9998,135342.4
				71,119.0608,12806.4
				72,120.0029,12314.3
				73,121.0108,1716172.9
				74,122.0186,350334.3
				75,123.0263,121826.0
				76,124.0342,37876.4
				77,124.9822,139422.2
				78,125.0055,9840.0
				79,125.042,53480.1
				80,126.0137,12891.9
				81,127.0156,1611385.6
				82,128.9771,16269.4
				83,134.0186,126470.2
				84,135.0264,311345.4
				85,136.0343,28534.3
				86,137.0057,192824.4
				87,137.042,11810.3
				88,138.0134,36478.0
				89,138.967,12920.9
				90,138.9765,13695.8
				91,139.0213,7903.0
				92,139.9749,38207.1
				93,139.9847,8415.8
				94,140.9828,187868.1
				95,142.9928,415736.3
				96,150.9671,9548.4
				97,151.975,7621.0
				98,151.9845,10521.5
				99,152.9829,1241551.9
				100,153.9906,109254.2
				101,154.9716,118978.6
				102,166.9984,42671.8
				103,167.9794,9743.0
				104,168.978,46861.1
				105,168.9873,792782.5
				106,170.9486,28391.7
				107,198.9436,33520.2
				108,202.9931,7371.8
			end
		end
		spectrum
			charge=0
			collision_energy=-1.0
			collision_record=150 (nominal)
			dbsource=MassBank
			exactmass=294.01493759
			formula=C10H15O4PS2
			inchi=C10H15O4PS2/c1-8-7-9(5-6-10(8)17(4)11)14-15(16,12-2)13-3/h5-7H,1-4H3
			level=2
			mode=1
			precursor_ion=[M+H]+
			precursor_mz=295.0222
			peaks
				1,50.0152,373348.7
				2,50.9995,31344.5
				3,51.023,562119.4
				4,52.0308,60939.6
				5,53.0023,58883.4
				6,53.0386,379554.6
				7,53.9975,13127.3
				8,55.0179,46084.7
				9,57.9872,111950.6
				10,58.995,47328.9
				11,59.9665,160829.6
				12,61.0075,10446.9
				13,62.0151,64856.0
				14,62.0185,103441.3
				15,62.9453,315678.3
				16,62.9631,26525.5
				17,62.9995,324271.1
				18,63.023,338178.8
				19,63.9436,41021.4
				20,64.0308,71124.6
				21,65.0386,1831440.0
				22,66.0464,935945.1
				23,67.0543,28557.5
				24,68.9794,790500.7
				25,69.9872,87575.4
				26,70.9951,140843.9
				27,75.0229,40105.5
				28,76.0307,83364.2
				29,77.0386,538931.9
				30,78.0464,1051823.6
				31,78.9944,1659161.5
				32,79.0543,246282.5
				33,79.948,16472.0
				34,80.9736,6600.3
				35,81.0101,43053.0
				36,81.0335,44663.5
				37,81.0698,7812.0
				38,81.9872,162698.8
				39,82.995,26408.9
				40,84.0029,161082.2
				41,85.0108,31938.6
				42,89.0386,487843.9
				43,90.0465,41421.5
				44,91.0543,989483.6
				45,92.062,12232.5
				46,92.9794,35726.2
				47,93.0101,150827.4
				48,94.0414,141279.2
				49,94.9951,119051.0
				50,95.0492,1076430.4
				51,96.0028,66492.8
				52,97.005,89639.5
				53,97.0108,965546.1
				54,98.0184,7052.7
				55,98.9841,65475.5
				56,100.9515,11488.8
				57,102.0465,16362.5
				58,103.0543,110567.0
				59,105.0448,607131.0
				60,105.07,34967.5
				61,106.0416,10744.2
				62,107.0046,9573.3
				63,107.0493,51046.3
				64,108.0029,415050.3
				65,109.0108,883371.6
				66,110.0186,408752.9
				67,111.0205,16217.4
				68,111.0267,8529.1
				69,112.9999,30847.3
				70,120.003,33326.0
				71,121.0108,1579825.5
				72,122.0186,141558.5
				73,123.0264,27962.4
				74,125.0055,9421.5
				75,127.0156,171377.5
				76,134.0186,106722.6
				77,135.0264,128226.5
				78,137.0057,89358.1
				79,138.9764,7572.0
				80,139.9747,13321.7
				81,140.9827,42865.3
				82,142.9928,34667.9
				83,150.9673,14566.2
				84,152.9829,524738.5
				85,154.9714,40179.4
				86,168.9872,128127.9
			end
		end
end
