charge=0
crossvalidation_batch_index=2
db_authors=Stravs M, Schymanski E, Singer H, Department of Environmental Chemistry, Eawag and Thomaidis N, University of Athens
db_copyright=Copyright (C) 2015 Eawag, Duebendorf, Switzerland
db_entry_id=EQ356201, EQ356202, EQ356203, EQ356204, EQ356205, EQ356206, EQ356207, EQ356208, EQ356209, EQ356251, EQ356252, EQ356253, EQ356254, EQ356255, EQ356256, EQ356257, EQ356258, EQ356259
db_license=CC BY
db_molecule_name=Haloxyfop 2-[4-[3-chloro-5-(trifluoromethyl)pyridin-2-yl]oxyphenoxy]propanoic acid
db_source=MassBank
exactmass=361.032870177
formula=C15H11ClF3NO4
fpt_0=gAQQgAAAAAAAAAAAYAAAAAAAAAAAAAAAAAAAAAAAAAAAAAAAAAAAAAAAAAAAAAAAAAAAAAAAAAAAAAAAAAAAAAAAAAAAAAAAAAAAAAAAAAAAAAAIAAAAAAAAAAAAAAAAAAAAAAAAAAAAAAAAAAAAAAAAAAAAAAAAAAAAAAAAAAAAAAAAAAAAAAAAAAAAAAAQQAAAAACAAAAAAAAAAAAAAAAAAAAAAAAAAAAAAAAAAAQAAAAAAAAAAAAAAAAAAAABAAAAAAAAAAAAAAAAAEAAAAAAAAAAAAAAAAAAAAAAAAAAAAAAAAAAAAAAAAAAAAAAAAAAAAAAAAAAAAAAAQAAAAAAAAAAAAAAAAAAAAAAAAAAAAAAAAAAAAAAMAAAAAAAAAAAAAAAAAAAAAAAAAAAAAAAAAAAAAAAAAAAAAAAMAgAAAAAAAAAAAAAAAAAAAAAAAACAAAAAAEAAAAAAAAAAAAAAAAAAAAAAAAAAAAAAAAIAAACAAAAAAAAgAAAAAAAAAAAAAAAAAAAAAAAAAAAAAAAAQAAAAAAAAAAAAAAAAEAAAAAAAAAAAABAACAEAACAAAAAAAAAAAAAAAAAAAAAAAAAIAAAAEABAACAAAAAAAAAAABAAAAAAAQAAAACAAAAAAAABAAAAAAAAAAAAAQAAAAAAEAAAABAAAIAAAAAAAAAAAAAAAAAAAAAAAAAAAAAAAAAAAAAAAAAAAAACAAAAAAAAAAAAAAAAAAAAAAAAAAAAAAAAAAAAAAAAAAAAAAAAAAAAAAAAAAAAIAAAAAAQAAAAAAAAAAICAACAAAAAAAAEAABAAACBAAIQQmWIrgSzxVv4CGaAIdAAEAAAAQAA6ICAwAASEAGVoVIoggqBAAIV6AlkAKgIk7ItkOC4CgAQnDgdCROAABsAAQCiEq4BiJSgBAQAhTSAIYhpgQCxygCAEhUKANOGACgipwCIhEgoAIIAAALNEIhAefMDEBACEBAIMAGoIEAADgggBAgYEAUiHuAACQCcAQFkggCwA5HMACAAAAAAAAAAAAAAAAAAAAAAAeIAAAAAAAAAAA4AAAD4EABAAABgtwzRsfR0kECwBUARh7pgFBRBAYkrAEbBC3J8wGk3Hi2c/nPBRyYAjl9APoKAAGAIAAAAAAAAABAAAAAAAAAAAAAAAAICAYAAAAAAAAAARAAAAAAAAAAAAACAJAAAAAAAAAAAAAABgAAYcJAAAAAIkYAAAAAEAAAAQAAAAIAAAAAAAAAAIgABAgAAAAAAACBBASQAAAAgAAAAAABAAAAAAAAAAEAAAAAAEAAAAAgAAAAAAAAABBAAAQAAABAAEAAAEAAAAEAAAAAUAAACAAAAAIQAAIAAAAAAAACAAEAAAACAoAAAABABIAAAAAAAACAAAAAAAAAAAAAAAAAAAIAAAAAAAAAAAAAAAAAAAAAAEABAAAAAEAAAAAAACAAAAAAAgAAAAAAAAAAAAAAAAAAAAAAAAAAIAAAAQAAIAAgAAAAAQAAAAAAAAAAAAAQAAAAAAAAAADAAAAAAAAAAAAAAAgACAABgAAAAMgAAAAEBCAEAEAAAAACFACCAAYAABBEAACAAAABALAAUCKiIAAEHgQQPyMIQCCARAAAAAAQAQgAAACAgCAgEACCgAAAABoAAEAQACAgAAJABAHAAAEAGGEEAKEAQgEeAKIACAEAAAIAAAAAAAAAAAEIIgEAABIAAMIAFMAAASFAAAAAAAAAAAAAAAAAFAIAAAADAAAABAAIAAEAAAgCAAQAGAAGAAAAGQIAAAAQAAAABAACAAAAAAAAAAAAAAAEEIEBAAAABAAAAAQAAAEADCCACDBAAAAAAAAIAAAAAA6AkBgAIQAAAAAAAgAAAIAAAAAAQAAAAKQCAAAAgAIAgAABAA=
fpt_1=gAQQgAAAAAAAAAAAYAAAAAAAAAAAAAAAAAAAAAAAAAAAAAAAAAAAAAAAAAAAAAAAAAAAAAAAAAAAAAAAAAAAAAAAAAAAAAAAAAAAAAAAAAAAAAAIAAAAAAAAAAAAAAAAAAAAAAAAAAAAAAAAAAAAAAAAAAAAAAAAAAAAAAAAAAAAAAAAAAAAAAAAAAAAAAAQQAAAAACAAAAAAAAAAAAAAAAAAAAAAAAAAAAAAAAAAAQAAAAAAAAAAAAAAAAAAAABAAAAAAAAAAAAAAAAAEAAAAAAAAAAAAAAAAAAAAAAAAAAAAAAAAAAAAAAAAAAAAAAAAAAAAAAAAAAAAAAAQAAAAAAAAAAAAAAAAAAAAAAAAAAAAAAAAAAAAAAMAAAAAAAAAAAAAAAAAAAAAAAAAAAAAAAAAAAAAAAAAAAAAAAMAgAAAAAAAAAAAAAAAAAAAAAAAACAAAAAAEAAAAAAAAAAAAAAAAAAAAAAAAAAAAAAAAIAAACAAAAAAAAgAAAAAAAAAAAAAAAAAAAAAAAAAAAAAAAAQAAAAAAAAAAAAAAAAEAAAAAAAAAAAABAACAEAACAAAAAAAAAAAAAAAAAAAAAAAAAIAAAAEABAACAAAAAAAAAAABAAAAAAAQAAAACAAAAAAAABAAAAAAAAAAAAAQAAAAAAEAAAABAAAIAAAAAAAAAAAAAAAAAAAAAAAAAAAAAAAAAAAAAAAAAAAAACAAAAAAAAAAAAAAAAAAAAAAAAAAAAAAAAAAAAAAAAAAAAAAAAAAAAAAAAAAAAIAAAAAAQAAAAAAAAAAICAACAAAAAAAAEAABAAACBAAIQQmWIrgSzxVv4CGaAIdAAEAAAAQAA6ICA4AASEAGVoVIoggqBAAIV6AlkAKgIk7ItkOC4CgAQnDgdCROAABsAAUCiEq4BiJSgBAQAhTSAIYhpgQCxygCAExUKANOGACgi5wCYhEgqAIMAAALNGKhAefODEBACEBAIMAGoIEAADgggBAkYMAUiHuEACQCcAQFkggCwA5HMACAAAAAAAAAAAAAAAAAAAAAAAeIAAAAAAAAAAA4AAAD4EABAAABgtwzRsfR0kECwBUARh7pgFBRBAYkrAEbBC3J8wGk3Hi2c/nPBRyYAjl9APoKAAGAIAAAAAAAAABAAAAAAAAAAAAAAAAICAYAAAAAAAAAARAAAAAAAAAAAAACAJAAAAAAAAAAAAAABgAAYcJAACAAIkYAAAAAEAAQAQAAAAIAAAAAAAAAAIgABAgAAAAAAACBBASQAAAAgAAAAAABAAAAAAAAAAEAAAAAAEAAAAAgAAAAgAAAABBAAAQAAABAAEAAAEAAAAEAAAAAUAAACBAAAAIQAAIAAAAAAAACAAEAAAACAoAAAABABIAAAAAAAACAAAAAACAAAAAAAAAAAAIAAAAAAAAAAAAAAAAAAAAAAEABAAAAAEAAAAIAACAAAABAAgAAAAAAAAAAAAAAAAAAAAAAAAAAIABAAQAAIAAgAAAAAQAAAAAAAAAAAAAQAAAAAAAAAADAAAAAAAAAAAAAAAgACAABgAAAAMgAAAAEBCAEAEAAAAACFACCAAYAABBEAACACAABALAAUCKiIAAEHgQQPyMIYCCARAAAAAAQAQgAAACAgCAgEACCgAAAABogAEAQACAgAAJABAHAAAEAGGEEAKEASgEeAKIACEEAAAIAAAACAAAgAAEIIgEAABIAEMIAFMAAASFAAAAAAAAAAAAAAAAAFAIAAAADAAAABAAIAAEAAAgCAAQAGAAGAAAAmQIAAAAQAAAABAACAAAAAAAAAAAAAAEEEIEBAAAABAAAAAQAAAEADCCBCDBAAAAAAAAIAAAAAA6AkBgAIQAAAAAAAgAAAIAAAAAAQAABAKQCAAAAoAIAgAABAA=
fptcount=2
global_index=192
inchi=C15H11ClF3NO4/c1-8(14(21)22)23-10-2-4-11(5-3-10)24-13-12(16)6-9(7-20-13)15(17,18)19/h2-8H,1H3,(H,21,22)
level=1
mode=1
peaks
	1,362.040146644,100.0
		ion_type=[M+H]+
		spectrum
			charge=0
			collision_energy=-1.0
			collision_record=15 (nominal)
			dbsource=MassBank
			exactmass=361.032870177
			formula=C15H11ClF3NO4
			inchi=C15H11ClF3NO4/c1-8(14(21)22)23-10-2-4-11(5-3-10)24-13-12(16)6-9(7-20-13)15(17,18)19/h2-8H,1H3,(H,21,22)
			level=2
			mode=1
			precursor_ion=[M+H]+
			precursor_mz=362.0401
			peaks
				1,272.007,4241.0
				2,290.0189,2779.2
				3,316.0351,418872.2
				4,362.0405,2387292.8
			end
		end
		spectrum
			charge=0
			collision_energy=-1.0
			collision_record=30 (nominal)
			dbsource=MassBank
			exactmass=361.032870177
			formula=C15H11ClF3NO4
			inchi=C15H11ClF3NO4/c1-8(14(21)22)23-10-2-4-11(5-3-10)24-13-12(16)6-9(7-20-13)15(17,18)19/h2-8H,1H3,(H,21,22)
			level=2
			mode=1
			precursor_ion=[M+H]+
			precursor_mz=362.0401
			peaks
				1,65.0386,2999.8
				2,91.0543,218061.2
				3,98.9844,2056.1
				4,111.044,6139.3
				5,119.0493,56691.2
				6,121.0285,82523.8
				7,166.0626,2020.3
				8,197.993,7397.4
				9,247.0401,8279.2
				10,252.0637,3492.4
				11,260.0452,9649.8
				12,272.0082,28631.6
				13,288.04,264547.6
				14,289.0114,183188.0
				15,290.0192,47551.7
				16,298.0241,6221.4
				17,316.0349,1929184.4
				18,362.0405,220000.4
			end
		end
		spectrum
			charge=0
			collision_energy=-1.0
			collision_record=45 (nominal)
			dbsource=MassBank
			exactmass=361.032870177
			formula=C15H11ClF3NO4
			inchi=C15H11ClF3NO4/c1-8(14(21)22)23-10-2-4-11(5-3-10)24-13-12(16)6-9(7-20-13)15(17,18)19/h2-8H,1H3,(H,21,22)
			level=2
			mode=1
			precursor_ion=[M+H]+
			precursor_mz=362.0401
			peaks
				1,51.0229,1993.4
				2,55.0179,5015.8
				3,60.0807,1652.9
				4,65.0386,42354.5
				5,67.0543,2937.3
				6,73.0284,4457.8
				7,91.0543,838287.4
				8,92.0258,2682.4
				9,92.062,2105.6
				10,93.0336,9259.7
				11,93.07,870.0
				12,94.0415,4789.1
				13,95.0493,2517.0
				14,98.9843,4880.1
				15,101.0598,2435.9
				16,109.0283,3100.8
				17,109.0649,13420.5
				18,111.0442,25152.4
				19,119.0493,119222.5
				20,119.0605,14636.0
				21,120.0571,13607.3
				22,121.0285,104186.9
				23,121.0648,6023.1
				24,125.0599,848.0
				25,135.0441,2042.9
				26,137.0599,2322.7
				27,177.9869,1005.2
				28,181.9982,3193.9
				29,192.0213,1688.3
				30,196.0137,843.6
				31,197.993,23523.8
				32,209.9934,3181.9
				33,212.009,1788.5
				34,219.0056,3277.5
				35,219.0449,6138.5
				36,220.0137,7751.1
				37,224.068,1746.7
				38,225.0762,2072.4
				39,226.0478,10553.3
				40,232.0142,13817.5
				41,235.0605,5105.9
				42,238.0471,919.7
				43,245.0217,3811.7
				44,247.0397,40372.4
				45,248.0086,3776.0
				46,248.0277,7143.2
				47,252.0029,1694.5
				48,252.0634,13494.0
				49,253.071,3726.2
				50,254.0426,6025.4
				51,260.0087,2221.4
				52,260.0451,39876.6
				53,261.0166,22667.8
				54,268.0334,3198.8
				55,270.0294,14089.3
				56,272.0087,287184.7
				57,273.0163,4010.5
				58,274.0242,4125.0
				59,280.058,5286.0
				60,286.996,1010.1
				61,288.0038,217092.0
				62,288.0399,335257.0
				63,289.0114,150866.6
				64,290.0192,39722.2
				65,298.0243,14750.9
				66,301.012,3939.7
				67,302.0197,949.5
				68,316.0351,268983.5
			end
		end
		spectrum
			charge=0
			collision_energy=-1.0
			collision_record=60 (nominal)
			dbsource=MassBank
			exactmass=361.032870177
			formula=C15H11ClF3NO4
			inchi=C15H11ClF3NO4/c1-8(14(21)22)23-10-2-4-11(5-3-10)24-13-12(16)6-9(7-20-13)15(17,18)19/h2-8H,1H3,(H,21,22)
			level=2
			mode=1
			precursor_ion=[M+H]+
			precursor_mz=362.0401
			peaks
				1,53.0386,1862.5
				2,55.0179,8332.7
				3,55.0543,2875.6
				4,63.023,3901.2
				5,64.0309,1886.2
				6,65.0386,153407.8
				7,67.0543,4744.1
				8,69.0335,1962.0
				9,69.07,1002.0
				10,73.0285,6108.6
				11,75.0229,9616.7
				12,77.0386,1712.6
				13,79.0543,3032.4
				14,81.0336,4877.5
				15,81.07,2861.7
				16,83.0492,1063.6
				17,91.0543,819067.6
				18,92.0257,16933.5
				19,92.0621,7308.4
				20,93.0336,8606.8
				21,93.07,3465.9
				22,94.0414,9560.1
				23,95.0492,3476.1
				24,98.9843,4008.6
				25,101.0599,1509.3
				26,105.0338,969.3
				27,105.0448,1679.3
				28,107.0494,990.2
				29,109.0286,14635.4
				30,109.0649,12063.2
				31,111.0442,24641.3
				32,119.0368,4017.5
				33,119.0493,45535.2
				34,119.0605,10411.3
				35,120.0571,14628.5
				36,121.0285,46834.0
				37,121.0398,3506.9
				38,121.0649,10227.5
				39,137.0599,992.0
				40,169.9742,1957.1
				41,175.0185,5088.2
				42,177.9869,2373.2
				43,178.0466,1060.7
				44,179.9824,1983.1
				45,181.9981,4569.7
				46,184.0759,889.4
				47,189.0389,2815.3
				48,192.0213,9411.8
				49,195.006,1832.7
				50,196.9854,1608.9
				51,197.993,47324.7
				52,198.0532,3593.2
				53,199.0368,6727.8
				54,203.0135,5651.4
				55,205.9985,3387.8
				56,206.0414,7651.2
				57,208.0371,3253.4
				58,209.045,39733.8
				59,212.0086,4111.7
				60,212.0706,3524.7
				61,216.0257,24729.0
				62,219.0061,8563.0
				63,219.045,4127.6
				64,220.014,10424.8
				65,220.0325,1793.2
				66,221.0242,912.4
				67,222.0119,3178.4
				68,224.0074,3707.2
				69,224.0681,3011.7
				70,225.0763,3546.8
				71,226.0476,50882.6
				72,232.014,25698.9
				73,234.0527,998.4
				74,235.0029,3978.7
				75,235.0606,10932.9
				76,237.04,20095.4
				77,238.0482,2407.9
				78,243.0058,1760.8
				79,244.0138,8139.2
				80,245.0217,12003.7
				81,246.031,11637.0
				82,247.0398,10963.0
				83,248.0278,4485.8
				84,252.0027,19930.2
				85,252.0634,10587.9
				86,253.0348,865.7
				87,253.0713,2377.6
				88,254.0426,19261.1
				89,260.0086,4997.8
				90,260.0451,15406.5
				91,261.0166,46780.7
				92,268.0338,1044.9
				93,269.0201,2466.6
				94,270.0294,9909.1
				95,272.0088,474308.9
				96,274.0247,1750.7
				97,280.0583,2596.6
				98,288.0037,355477.5
				99,288.0388,38842.0
				100,289.0115,19916.9
				101,290.0192,11769.2
				102,298.0248,5154.0
				103,301.0114,1025.7
				104,316.0349,9819.0
			end
		end
		spectrum
			charge=0
			collision_energy=-1.0
			collision_record=75 (nominal)
			dbsource=MassBank
			exactmass=361.032870177
			formula=C15H11ClF3NO4
			inchi=C15H11ClF3NO4/c1-8(14(21)22)23-10-2-4-11(5-3-10)24-13-12(16)6-9(7-20-13)15(17,18)19/h2-8H,1H3,(H,21,22)
			level=2
			mode=1
			precursor_ion=[M+H]+
			precursor_mz=362.0401
			peaks
				1,50.015,1519.1
				2,51.023,1929.6
				3,53.0023,2303.2
				4,53.0386,5037.9
				5,54.0465,2204.6
				6,55.0179,10357.1
				7,55.0543,2880.1
				8,57.0699,653.9
				9,60.0809,533.8
				10,62.0151,1015.8
				11,63.023,21118.4
				12,64.0308,5168.2
				13,65.0386,273571.1
				14,66.0465,2090.8
				15,67.0544,3327.9
				16,69.0336,736.6
				17,69.07,611.0
				18,72.984,2419.8
				19,73.0284,3388.0
				20,74.0151,3679.5
				21,75.023,41601.3
				22,77.0386,2480.6
				23,79.0178,1593.4
				24,79.0543,6082.5
				25,80.0621,1853.7
				26,81.0336,17710.6
				27,81.07,3025.2
				28,83.0491,1611.7
				29,90.034,4489.6
				30,90.0465,715.4
				31,91.0543,517860.2
				32,92.0258,40499.0
				33,92.037,2461.3
				34,92.0621,5969.4
				35,93.0336,3118.3
				36,93.07,3454.6
				37,94.0414,17335.4
				38,95.0493,8590.2
				39,98.9843,4178.0
				40,102.0464,2076.6
				41,103.0542,907.5
				42,105.0336,917.1
				43,105.0448,5969.7
				44,107.0103,618.2
				45,107.0492,937.3
				46,108.0444,757.9
				47,109.0285,27583.4
				48,109.0649,2552.5
				49,110.0364,2338.7
				50,111.0441,9666.0
				51,119.0368,4423.6
				52,119.0493,11725.8
				53,119.0606,2072.6
				54,120.0446,3819.4
				55,120.057,5681.4
				56,121.0285,25251.3
				57,121.0396,5225.4
				58,121.0648,6133.8
				59,131.0492,569.4
				60,137.9745,543.2
				61,140.0495,7106.0
				62,141.9793,3773.1
				63,142.0101,616.1
				64,146.0216,661.3
				65,149.0086,857.0
				66,149.9919,566.8
				67,150.0166,1485.6
				68,151.0356,2523.1
				69,154.0655,770.9
				70,156.0445,3960.1
				71,157.0524,5404.9
				72,157.9806,2198.4
				73,158.0402,4732.0
				74,159.0479,1773.2
				75,159.9763,1646.8
				76,164.0258,860.4
				77,164.0319,566.0
				78,165.0104,908.3
				79,166.0656,2462.4
				80,168.0446,9831.7
				81,168.9904,1631.5
				82,169.9743,784.6
				83,171.0415,3124.5
				84,175.0185,14389.0
				85,176.0511,608.8
				86,177.9868,2311.1
				87,178.0465,9668.7
				88,179.0306,869.7
				89,179.9824,8307.1
				90,180.9902,872.8
				91,181.9981,3107.3
				92,182.0339,4237.5
				93,183.0682,779.1
				94,184.0561,724.8
				95,184.0761,677.4
				96,185.0451,3690.2
				97,186.0353,1618.8
				98,187.043,3812.5
				99,188.0309,3227.2
				100,189.0386,13040.2
				101,190.0468,6700.0
				102,192.0212,14726.1
				103,195.0063,1934.1
				104,196.9855,658.8
				105,197.993,56744.7
				106,198.0526,10691.3
				107,199.0367,20945.3
				108,201.0401,2174.0
				109,203.0135,12296.2
				110,204.021,880.6
				111,205.9985,2946.1
				112,206.0414,23705.2
				113,208.0371,13879.8
				114,209.045,98021.0
				115,210.0529,2414.2
				116,212.0082,2180.4
				117,212.0708,812.4
				118,213.9995,2027.2
				119,215.0545,800.0
				120,216.0259,61120.0
				121,217.0335,6541.8
				122,218.0419,7866.1
				123,219.006,9965.9
				124,220.0147,3290.5
				125,220.0326,962.7
				126,221.0243,890.1
				127,222.0118,6916.5
				128,224.0076,9448.0
				129,224.0687,1914.8
				130,225.0399,815.0
				131,226.0477,44998.0
				132,232.0138,15437.1
				133,233.9929,821.0
				134,234.0368,856.4
				135,234.0526,1734.8
				136,235.0031,6716.1
				137,235.0605,8056.5
				138,236.0082,1873.1
				139,236.0321,2884.8
				140,237.0399,25578.1
				141,238.0476,1927.3
				142,243.0059,5141.5
				143,244.0139,7903.6
				144,245.0218,5917.8
				145,246.0316,5627.8
				146,247.0396,973.4
				147,248.028,522.3
				148,252.0632,3487.5
				149,254.0426,11566.3
				150,260.009,8037.2
				151,260.0454,814.6
				152,261.0166,12053.8
				153,269.9927,838.2
				154,270.0297,2317.0
				155,272.0087,181996.1
				156,280.0581,703.3
				157,288.0036,252252.0
				158,289.0115,563.5
				159,290.0195,797.7
			end
		end
		spectrum
			charge=0
			collision_energy=-1.0
			collision_record=90 (nominal)
			dbsource=MassBank
			exactmass=361.032870177
			formula=C15H11ClF3NO4
			inchi=C15H11ClF3NO4/c1-8(14(21)22)23-10-2-4-11(5-3-10)24-13-12(16)6-9(7-20-13)15(17,18)19/h2-8H,1H3,(H,21,22)
			level=2
			mode=1
			precursor_ion=[M+H]+
			precursor_mz=362.0401
			peaks
				1,50.0152,1992.3
				2,51.023,2440.8
				3,53.0022,4063.6
				4,53.0386,8012.9
				5,53.9974,560.5
				6,54.0465,4828.5
				7,55.0179,10231.6
				8,55.0543,3161.8
				9,57.0136,507.3
				10,61.0073,547.1
				11,62.0152,3200.3
				12,63.023,61880.3
				13,64.0308,16189.2
				14,65.0387,312288.4
				15,66.0465,3760.3
				16,66.9746,2313.3
				17,67.0543,2323.7
				18,68.9947,874.3
				19,68.9972,1028.7
				20,69.0337,454.4
				21,72.984,7539.7
				22,73.0285,1682.1
				23,74.0151,11384.6
				24,75.023,63697.3
				25,76.0308,594.1
				26,77.0386,3552.4
				27,79.0179,2219.2
				28,79.0543,4309.3
				29,81.0336,33690.8
				30,83.0493,734.6
				31,84.9652,2733.5
				32,89.0386,1942.7
				33,90.034,5565.0
				34,91.0543,284888.2
				35,92.0258,42395.4
				36,92.037,3925.2
				37,92.0622,2941.3
				38,93.0337,753.7
				39,93.0699,4705.4
				40,94.0415,19198.2
				41,95.0493,12701.1
				42,98.9842,4304.2
				43,102.0465,2655.6
				44,103.0544,2570.5
				45,105.0338,1845.1
				46,105.0448,7337.4
				47,107.0105,2286.2
				48,107.0493,1034.5
				49,108.021,512.7
				50,108.0444,1844.6
				51,108.9654,2523.9
				52,109.0285,24556.6
				53,109.9792,732.0
				54,111.0441,4851.3
				55,111.9949,546.5
				56,113.9912,533.8
				57,114.0153,412.8
				58,114.9993,432.2
				59,115.0419,391.2
				60,119.0107,1383.0
				61,119.0366,4409.2
				62,119.0494,3489.7
				63,120.0445,8112.3
				64,120.0571,912.5
				65,121.0286,9839.4
				66,121.0398,5683.3
				67,126.0152,901.5
				68,128.0496,3023.5
				69,129.0577,1764.3
				70,130.0403,2863.1
				71,132.0258,2190.5
				72,133.0451,528.7
				73,137.9746,3078.1
				74,139.042,573.5
				75,139.0545,657.9
				76,140.0496,19687.2
				77,140.9717,1710.8
				78,141.0575,1002.0
				79,141.9794,3977.5
				80,142.0101,1765.2
				81,144.0447,903.5
				82,145.0133,524.3
				83,146.0215,2994.6
				84,146.0604,609.6
				85,147.9963,1846.8
				86,148.0181,587.6
				87,148.0559,879.1
				88,149.0086,493.6
				89,149.0151,401.9
				90,149.0401,912.0
				91,149.992,2533.9
				92,150.0163,954.3
				93,151.0356,15211.4
				94,152.9717,757.4
				95,154.0654,2449.4
				96,155.0735,534.4
				97,156.0183,442.6
				98,156.0445,8693.7
				99,157.0459,823.0
				100,157.0524,12065.1
				101,157.9806,7377.9
				102,158.0403,15705.4
				103,158.0604,2149.3
				104,159.0482,8356.9
				105,159.9761,5066.7
				106,161.0199,847.7
				107,162.0167,576.8
				108,162.0277,2873.2
				109,163.0242,843.9
				110,164.0259,874.0
				111,164.032,2739.2
				112,164.0434,400.5
				113,165.0104,3227.4
				114,166.0652,3034.0
				115,167.0064,651.4
				116,167.0369,1592.5
				117,168.0446,19126.0
				118,168.9901,987.5
				119,169.026,601.3
				120,169.0325,1917.7
				121,174.0107,1858.7
				122,175.0186,18681.4
				123,176.0315,729.5
				124,176.051,1026.9
				125,177.0387,1732.1
				126,177.9868,3023.4
				127,178.0466,15569.7
				128,179.0308,3079.4
				129,179.9824,18440.9
				130,180.9904,1978.1
				131,181.0256,639.5
				132,181.9983,1880.6
				133,182.034,10455.7
				134,182.0413,987.5
				135,183.0295,2340.4
				136,183.0685,695.7
				137,184.0561,964.5
				138,184.0758,473.7
				139,185.0456,5602.2
				140,186.0354,4095.5
				141,187.0431,5328.2
				142,188.0309,12580.1
				143,189.0387,24141.1
				144,190.0466,18808.2
				145,191.0421,791.9
				146,192.0213,8820.7
				147,195.0063,871.6
				148,196.0373,1607.8
				149,197.0447,793.9
				150,197.9931,65080.8
				151,198.0527,11330.6
				152,199.0367,26254.0
				153,201.0405,811.2
				154,202.0058,1592.2
				155,203.0135,5883.1
				156,204.046,991.1
				157,204.0627,479.1
				158,205.9984,2615.4
				159,206.0416,32607.3
				160,208.0372,19972.6
				161,209.045,75684.0
				162,210.0527,1714.4
				163,212.0083,4153.0
				164,213.9995,2033.8
				165,214.0467,876.9
				166,215.0544,942.7
				167,216.0259,49995.9
				168,217.0338,5647.3
				169,218.0416,11397.0
				170,219.0063,6739.6
				171,220.0152,840.2
				172,222.0119,5531.9
				173,224.0686,1739.2
				174,225.0402,1818.8
				175,226.0477,16157.5
				176,232.0144,9530.9
				177,234.0366,1564.2
				178,234.0533,673.7
				179,235.003,3658.1
				180,235.0607,3209.6
				181,236.032,3339.1
				182,237.0398,13318.5
				183,238.0479,789.2
				184,243.0062,5417.0
				185,244.0139,4404.0
				186,245.0222,2003.3
				187,246.0324,2216.8
				188,252.0026,7569.6
				189,252.0631,791.2
				190,253.0346,4894.7
				191,254.0427,3343.1
				192,256.0143,513.1
				193,259.0009,919.3
				194,260.0089,19170.7
				195,261.0168,1635.7
				196,269.993,9597.1
				197,272.0088,40919.0
				198,288.0037,136727.1
				199,302.0202,594.8
			end
		end
		spectrum
			charge=0
			collision_energy=-1.0
			collision_record=120 (nominal)
			dbsource=MassBank
			exactmass=361.032870177
			formula=C15H11ClF3NO4
			inchi=C15H11ClF3NO4/c1-8(14(21)22)23-10-2-4-11(5-3-10)24-13-12(16)6-9(7-20-13)15(17,18)19/h2-8H,1H3,(H,21,22)
			level=2
			mode=1
			precursor_ion=[M+H]+
			precursor_mz=362.0401
			peaks
				1,50.0152,6299.1
				2,51.023,8070.8
				3,52.0308,967.7
				4,53.0023,8821.6
				5,53.0386,13964.4
				6,53.9975,868.2
				7,54.0465,5874.5
				8,55.0179,9725.5
				9,55.0543,2887.4
				10,57.0136,5694.8
				11,61.0073,2237.3
				12,62.0152,9819.2
				13,63.023,124006.3
				14,64.0183,3630.4
				15,64.0308,25716.0
				16,65.0387,247680.8
				17,66.0464,9386.4
				18,66.9746,3789.1
				19,67.0543,2091.3
				20,68.9947,9004.4
				21,68.997,1331.9
				22,72.984,12889.5
				23,74.0152,34182.5
				24,75.0041,10625.4
				25,75.023,60941.4
				26,76.0182,2517.1
				27,76.0308,2436.3
				28,77.0022,445.8
				29,77.0386,6791.1
				30,78.0339,362.7
				31,78.0465,812.9
				32,79.0179,5208.8
				33,79.0542,4396.1
				34,81.0336,45780.3
				35,83.0292,793.0
				36,84.9652,11583.3
				37,84.9839,1704.5
				38,87.023,890.3
				39,88.0183,722.2
				40,89.0387,2997.1
				41,90.034,2274.6
				42,90.0465,595.9
				43,90.9747,6347.1
				44,91.0543,72602.3
				45,92.0258,14960.4
				46,92.0369,1889.8
				47,93.0338,728.2
				48,93.07,417.1
				49,94.0415,10866.6
				50,95.0492,14022.1
				51,96.0247,493.1
				52,96.0445,565.2
				53,98.9843,2039.0
				54,99.0041,3659.3
				55,99.9995,4570.9
				56,101.0197,633.6
				57,101.0386,469.4
				58,102.0465,14804.7
				59,103.0416,468.5
				60,103.0543,897.2
				61,104.0133,2716.9
				62,105.0336,2251.4
				63,105.0448,10773.4
				64,107.0103,2246.9
				65,107.0293,1738.9
				66,108.0371,1693.8
				67,108.0444,520.4
				68,108.9653,16486.6
				69,109.0286,8052.0
				70,109.9793,11372.9
				71,110.0364,843.5
				72,111.023,4245.8
				73,111.0442,5261.6
				74,111.9949,1724.0
				75,112.0186,575.6
				76,112.031,619.2
				77,113.0387,13386.7
				78,113.9913,617.2
				79,114.0153,452.9
				80,114.0341,3281.4
				81,115.0543,556.0
				82,116.0498,538.2
				83,119.0105,6414.7
				84,119.0368,1633.1
				85,119.049,667.2
				86,120.0374,575.7
				87,120.0446,4128.0
				88,121.0285,2131.0
				89,121.0397,4447.9
				90,122.9995,415.6
				91,125.007,522.8
				92,125.0197,943.1
				93,126.0152,4834.7
				94,127.0418,628.2
				95,127.9899,2207.5
				96,128.0496,12234.7
				97,129.0447,3970.9
				98,129.0575,4399.3
				99,129.9854,1829.8
				100,130.0402,2763.8
				101,131.0293,7601.2
				102,131.0493,2324.3
				103,132.0182,1950.6
				104,132.0257,5279.9
				105,132.037,861.2
				106,132.9651,1992.7
				107,133.045,3010.8
				108,134.04,558.5
				109,135.0043,389.9
				110,135.0313,392.5
				111,137.0199,481.6
				112,137.9745,4042.4
				113,138.0274,875.8
				114,138.0341,2830.5
				115,139.042,5592.0
				116,139.0542,1709.2
				117,140.0496,28654.0
				118,140.9714,491.2
				119,141.0134,2345.8
				120,141.0573,3335.0
				121,142.01,3562.4
				122,143.0293,920.0
				123,144.0255,861.8
				124,144.0446,3346.0
				125,145.0134,1903.8
				126,145.0261,1757.4
				127,146.0215,4589.8
				128,146.0604,1295.7
				129,147.0104,468.7
				130,147.9959,1940.9
				131,148.0184,6239.7
				132,148.0558,1899.5
				133,149.0198,754.1
				134,149.9916,2530.7
				135,150.0349,524.1
				136,151.0356,41962.2
				137,152.0306,1776.2
				138,152.9715,3516.4
				139,154.065,2053.1
				140,156.0183,3244.9
				141,156.0446,12245.5
				142,157.0458,803.9
				143,157.0523,8318.1
				144,157.9804,7988.8
				145,158.0403,23410.5
				146,158.0599,1998.5
				147,159.0481,9823.8
				148,159.9762,12074.2
				149,161.0197,2394.9
				150,162.0161,1810.6
				151,162.0278,9281.0
				152,162.0345,880.2
				153,163.0236,2834.5
				154,164.0258,334.3
				155,164.0318,4474.9
				156,164.0428,543.9
				157,164.0493,441.9
				158,165.0101,2461.7
				159,166.0651,1809.9
				160,167.0059,782.8
				161,167.0368,702.2
				162,168.0251,3395.6
				163,168.0446,9548.8
				164,169.0261,1001.0
				165,169.0322,4596.8
				166,170.0404,1617.9
				167,171.0415,2224.2
				168,174.0107,1726.4
				169,176.0309,6516.6
				170,176.0506,1566.6
				171,177.0387,5266.2
				172,177.9865,2676.8
				173,178.0466,5481.7
				174,179.9824,10070.4
				175,180.038,518.7
				176,182.0339,8404.3
				177,182.0412,1189.0
				178,183.0292,2244.8
				179,184.0397,4523.3
				180,184.056,632.7
				181,186.0354,4352.8
				182,187.0227,2076.5
				183,187.0429,1721.2
				184,188.0311,5911.7
				185,188.0508,1503.8
				186,189.0387,12052.0
				187,190.0465,15964.1
				188,191.0414,1897.1
				189,196.0369,1755.7
				190,197.0442,2235.0
				191,197.9931,16913.7
				192,198.0528,2914.3
				193,199.0368,5407.8
				194,204.0454,439.9
				195,206.0417,6249.3
				196,207.0292,2923.2
				197,208.0371,12498.5
				198,209.045,8106.5
				199,214.0466,578.6
				200,218.0412,3429.1
				201,219.0062,477.9
				202,224.0071,2203.7
				203,225.04,459.0
				204,234.0361,781.6
				205,236.0316,650.0
				206,237.0399,450.6
				207,243.0062,713.5
				208,253.0347,1500.1
				209,269.993,5222.2
				210,272.0086,613.3
				211,288.0036,6671.5
			end
		end
		spectrum
			charge=0
			collision_energy=-1.0
			collision_record=150 (nominal)
			dbsource=MassBank
			exactmass=361.032870177
			formula=C15H11ClF3NO4
			inchi=C15H11ClF3NO4/c1-8(14(21)22)23-10-2-4-11(5-3-10)24-13-12(16)6-9(7-20-13)15(17,18)19/h2-8H,1H3,(H,21,22)
			level=2
			mode=1
			precursor_ion=[M+H]+
			precursor_mz=362.0401
			peaks
				1,50.0152,12584.5
				2,51.0042,2536.0
				3,51.023,16478.6
				4,52.0182,1485.5
				5,52.0308,3041.1
				6,53.0023,13862.5
				7,53.0387,15397.9
				8,53.9975,2151.0
				9,54.0465,3440.6
				10,55.0179,7429.8
				11,55.0543,898.4
				12,57.0136,9624.4
				13,61.0073,4609.8
				14,62.0152,18580.7
				15,63.023,151568.5
				16,64.0182,4473.0
				17,64.0308,15571.6
				18,65.0387,127249.6
				19,66.0465,8503.3
				20,66.9746,4970.8
				21,67.0543,712.1
				22,68.0057,578.3
				23,68.9947,22075.6
				24,68.997,1306.3
				25,72.984,12519.3
				26,74.0152,55108.4
				27,75.0041,22090.4
				28,75.0104,7745.2
				29,75.023,46154.8
				30,76.0182,8237.8
				31,76.0308,3556.1
				32,77.0022,1485.3
				33,77.0386,6803.5
				34,78.034,723.7
				35,78.0465,2510.0
				36,79.0179,5520.9
				37,79.0544,1450.0
				38,81.0135,3442.0
				39,81.0336,25556.2
				40,82.0089,721.7
				41,83.0292,1447.3
				42,84.9652,14947.3
				43,84.984,3454.5
				44,86.0151,3694.7
				45,87.023,6076.0
				46,88.0121,1748.8
				47,88.0183,2918.2
				48,88.0309,1537.8
				49,89.0387,5324.7
				50,90.0341,656.6
				51,90.0468,445.1
				52,90.9746,7702.2
				53,91.0544,18027.9
				54,92.0258,4515.8
				55,92.0369,442.2
				56,92.9949,1651.0
				57,93.0137,648.4
				58,93.0336,492.6
				59,94.009,446.3
				60,94.0215,594.8
				61,94.0414,4340.2
				62,95.0493,13287.3
				63,96.0247,879.2
				64,96.0446,606.5
				65,96.9843,737.9
				66,98.0151,2722.6
				67,98.9842,2695.2
				68,99.0042,9402.8
				69,99.0232,1790.2
				70,99.9994,5960.8
				71,100.0184,1962.8
				72,101.0027,727.1
				73,101.0198,4622.7
				74,101.0389,2024.4
				75,102.0465,18981.0
				76,103.042,797.4
				77,103.0544,522.9
				78,104.0132,2086.1
				79,105.0137,3094.7
				80,105.0338,2039.6
				81,105.0448,9476.2
				82,106.0216,478.2
				83,107.0105,1829.1
				84,107.0293,3354.1
				85,108.0372,1695.5
				86,108.9652,21945.3
				87,109.9793,25323.7
				88,111.0041,454.2
				89,111.023,8832.6
				90,111.9948,586.4
				91,112.0122,1446.3
				92,112.0185,2286.3
				93,112.0309,1323.0
				94,113.0387,23301.8
				95,114.034,4703.1
				96,114.9993,573.1
				97,115.0418,735.8
				98,115.0544,510.6
				99,116.0496,393.6
				100,117.0137,1417.9
				101,119.0105,7483.7
				102,120.0374,2206.5
				103,120.0448,1585.8
				104,121.0398,1608.2
				105,122.0154,931.5
				106,122.9998,596.7
				107,123.0043,885.3
				108,123.0105,680.6
				109,123.0234,1554.5
				110,123.9998,2170.8
				111,124.0185,688.4
				112,125.0077,1675.4
				113,125.0199,4252.1
				114,126.0152,4797.3
				115,127.0421,1823.3
				116,127.9899,3683.4
				117,128.0496,10844.9
				118,129.0448,8547.2
				119,129.9859,919.1
				120,131.0293,17624.7
				121,132.0186,2230.2
				122,132.0249,2976.8
				123,132.0373,1471.8
				124,132.9654,3451.2
				125,133.0451,1700.2
				126,134.0406,553.7
				127,135.0045,522.6
				128,135.032,535.8
				129,136.0124,579.4
				130,137.0202,464.2
				131,137.9744,1762.8
				132,138.0111,904.6
				133,138.028,1688.4
				134,138.0343,5487.4
				135,139.0421,3830.7
				136,139.0546,539.1
				137,140.0497,11803.8
				138,141.0138,632.6
				139,141.0576,770.7
				140,142.0101,782.8
				141,143.0295,498.9
				142,144.026,1411.8
				143,144.0449,2168.5
				144,145.0264,1470.6
				145,146.0214,537.5
				146,146.0604,1492.9
				147,147.0104,3318.2
				148,147.9963,745.8
				149,148.0185,3808.5
				150,149.02,2362.0
				151,149.04,2798.0
				152,149.992,792.7
				153,150.0351,717.9
				154,151.0356,23241.7
				155,152.0311,408.6
				156,152.9718,2401.6
				157,154.0655,733.4
				158,156.0184,2121.0
				159,156.0243,528.2
				160,156.0444,4549.2
				161,157.0527,2085.4
				162,157.9806,1352.7
				163,158.0403,11313.6
				164,159.048,3721.9
				165,159.9761,5107.2
				166,161.0202,1609.7
				167,162.0163,416.9
				168,162.028,6439.5
				169,162.0347,1060.0
				170,163.0235,800.8
				171,164.0314,886.9
				172,164.0498,721.2
				173,168.0247,581.0
				174,168.0451,1620.5
				175,169.0263,3505.8
				176,169.033,1912.4
				177,170.0406,1469.9
				178,175.0185,482.8
				179,176.0311,3872.9
				180,177.0392,2189.5
				181,177.9871,557.5
				182,178.0465,605.0
				183,179.9825,1411.7
				184,180.0384,352.6
				185,182.0343,1685.5
				186,184.0396,1809.6
				187,187.0232,1296.9
				188,188.0315,2107.4
				189,188.0504,412.3
				190,189.0391,2332.5
				191,190.0464,3522.5
				192,191.0418,695.2
				193,196.0379,440.6
				194,197.9933,1552.8
				195,207.03,571.7
				196,208.0379,1500.5
			end
		end
		spectrum
			charge=0
			collision_energy=-1.0
			collision_record=180 (nominal)
			dbsource=MassBank
			exactmass=361.032870177
			formula=C15H11ClF3NO4
			inchi=C15H11ClF3NO4/c1-8(14(21)22)23-10-2-4-11(5-3-10)24-13-12(16)6-9(7-20-13)15(17,18)19/h2-8H,1H3,(H,21,22)
			level=2
			mode=1
			precursor_ion=[M+H]+
			precursor_mz=362.0401
			peaks
				1,50.0152,17574.0
				2,51.0042,3639.6
				3,51.023,24412.5
				4,52.0183,3736.1
				5,52.0308,2887.6
				6,53.0023,19109.9
				7,53.0387,8983.7
				8,53.9975,2450.4
				9,54.0465,859.2
				10,55.0179,3832.7
				11,57.0136,12488.1
				12,61.0073,10048.0
				13,62.0152,33609.7
				14,63.023,151859.4
				15,64.0183,3762.3
				16,64.0308,7472.2
				17,65.0387,51709.4
				18,66.0465,4266.0
				19,66.9746,4568.7
				20,68.0057,736.4
				21,68.9947,31449.4
				22,72.984,10877.8
				23,74.0152,70119.5
				24,75.0041,25634.0
				25,75.0104,17803.6
				26,75.023,38865.0
				27,76.0182,15762.5
				28,76.0308,3478.6
				29,77.0022,1661.8
				30,77.0386,4765.2
				31,78.034,788.6
				32,78.0465,1996.0
				33,79.0179,8063.2
				34,79.0543,462.8
				35,81.0135,7720.8
				36,81.0336,10433.5
				37,82.0088,626.6
				38,83.0292,1530.8
				39,84.9652,11758.5
				40,84.984,3165.0
				41,86.0152,8222.9
				42,87.023,12619.6
				43,88.0121,840.6
				44,88.0183,4579.6
				45,88.0308,1526.8
				46,89.0387,4367.5
				47,90.034,846.6
				48,90.9746,6027.9
				49,91.0543,7855.8
				50,92.0257,1644.2
				51,92.9948,3324.8
				52,93.0136,441.6
				53,94.0088,749.9
				54,94.0215,505.6
				55,94.0413,534.8
				56,95.0493,7757.7
				57,96.0244,728.9
				58,96.0444,1586.0
				59,96.9841,1484.8
				60,98.0152,3954.7
				61,98.9841,2580.8
				62,99.0042,8717.1
				63,99.023,2820.5
				64,99.9994,3960.5
				65,100.0182,2081.5
				66,101.0025,479.4
				67,101.0198,3737.6
				68,101.0386,2087.2
				69,102.0465,8758.3
				70,103.0417,437.2
				71,104.0131,628.9
				72,105.0137,4714.2
				73,105.0449,4215.1
				74,106.0216,1248.1
				75,107.0294,3071.6
				76,108.0369,603.7
				77,108.9653,15459.0
				78,109.9793,16923.7
				79,111.004,460.1
				80,111.023,6597.2
				81,112.0121,786.9
				82,112.0184,2846.1
				83,113.0387,9844.5
				84,114.034,3190.9
				85,117.0136,473.6
				86,119.0105,4081.9
				87,119.0493,685.6
				88,120.0372,1636.1
				89,120.0444,396.3
				90,122.0153,3692.4
				91,122.9995,608.0
				92,123.004,1400.6
				93,123.0104,2316.7
				94,123.0229,1885.9
				95,123.9994,1622.6
				96,124.0184,857.7
				97,125.0199,3625.1
				98,126.015,1825.1
				99,127.0419,426.0
				100,127.9898,1479.4
				101,128.0496,3465.7
				102,129.0448,4787.2
				103,130.04,468.9
				104,131.0293,11482.3
				105,132.0368,519.0
				106,132.9652,2218.8
				107,133.0449,428.0
				108,135.0043,468.0
				109,135.0318,523.4
				110,136.0123,494.2
				111,138.0112,1533.1
				112,138.034,1637.3
				113,139.0417,787.7
				114,140.0497,2560.6
				115,144.0257,673.3
				116,144.0445,530.4
				117,147.0106,3285.5
				118,148.018,1284.9
				119,149.0198,2206.5
				120,149.0401,685.7
				121,151.0356,7374.5
				122,156.0183,710.9
				123,156.0241,438.2
				124,158.0404,3049.0
				125,159.9762,536.2
				126,162.0277,1658.0
				127,164.0314,559.1
				128,168.0242,340.5
				129,169.0261,2492.5
				130,176.0306,1523.5
			end
		end
end
